# $E$ (ev)	$\mu (E)$ (arb. units)
5.200000e+02	3.492406e-03
5.201500e+02	1.412338e-02
5.203000e+02	-5.759106e-03
5.204500e+02	-1.134894e-02
5.206000e+02	-4.036407e-02
5.207500e+02	-1.539216e-02
5.209000e+02	-2.300766e-03
5.210500e+02	-3.401228e-03
5.212000e+02	-2.471020e-02
5.213500e+02	-8.933188e-03
5.215000e+02	1.318718e-02
5.216500e+02	8.970938e-03
5.218000e+02	-1.179803e-02
5.219500e+02	-2.018830e-02
5.221000e+02	-7.467689e-03
5.222500e+02	-3.858935e-03
5.224000e+02	3.994616e-03
5.225500e+02	4.266348e-03
5.227000e+02	-2.489226e-04
5.228500e+02	2.957031e-02
5.230000e+02	3.189416e-02
5.231500e+02	8.816311e-04
5.233000e+02	-6.021620e-02
5.234500e+02	-3.459854e-02
5.236000e+02	1.594290e-02
5.237500e+02	1.114778e-02
5.239000e+02	-2.769436e-02
5.240500e+02	-9.290346e-03
5.242000e+02	9.752346e-03
5.243500e+02	2.161725e-02
5.245000e+02	2.669293e-02
5.246500e+02	1.801654e-02
5.248000e+02	2.907226e-02
5.249500e+02	-4.805337e-03
5.251000e+02	1.358390e-02
5.252500e+02	-1.653341e-02
5.254000e+02	-3.143114e-03
5.255500e+02	2.962331e-02
5.257000e+02	3.802629e-04
5.258500e+02	-1.969744e-02
5.260000e+02	-5.385754e-03
5.261500e+02	-2.715703e-02
5.263000e+02	-7.578051e-03
5.264500e+02	-2.806361e-02
5.266000e+02	-4.358410e-02
5.267500e+02	5.644124e-03
5.269000e+02	-5.079817e-03
5.270500e+02	4.716111e-02
5.272000e+02	7.151230e-02
5.273500e+02	3.045964e-02
5.275000e+02	2.694156e-03
5.276500e+02	1.697343e-02
5.278000e+02	8.716755e-03
5.279500e+02	3.092721e-02
5.281000e+02	5.759592e-02
5.282500e+02	6.212530e-02
5.284000e+02	6.471237e-02
5.285500e+02	7.599932e-02
5.287000e+02	1.146846e-01
5.288500e+02	2.375466e-01
5.290000e+02	3.656888e-01
5.291500e+02	4.516154e-01
5.293000e+02	4.566286e-01
5.294500e+02	4.044659e-01
5.296000e+02	2.778500e-01
5.297500e+02	2.026147e-01
5.299000e+02	1.584382e-01
5.300500e+02	1.322647e-01
5.302000e+02	1.249409e-01
5.303500e+02	1.177804e-01
5.305000e+02	1.106157e-01
5.306500e+02	1.510744e-01
5.308000e+02	2.690426e-01
5.309500e+02	4.335553e-01
5.311000e+02	6.221343e-01
5.312500e+02	8.561167e-01
5.314000e+02	1.129442e+00
5.315500e+02	1.379093e+00
5.317000e+02	1.536233e+00
5.318500e+02	1.642882e+00
5.320000e+02	1.679444e+00
5.321500e+02	1.610242e+00
5.323000e+02	1.487932e+00
5.324500e+02	1.397743e+00
5.326000e+02	1.290994e+00
5.327500e+02	1.150941e+00
5.329000e+02	1.032522e+00
5.330500e+02	9.424231e-01
5.332000e+02	9.021354e-01
5.333500e+02	9.040853e-01
5.335000e+02	9.138322e-01
5.336500e+02	8.561223e-01
5.338000e+02	7.272567e-01
5.339500e+02	6.505024e-01
5.341000e+02	6.062502e-01
5.342500e+02	5.691161e-01
5.344000e+02	5.372772e-01
5.345500e+02	4.643399e-01
5.347000e+02	4.060794e-01
5.348500e+02	3.814193e-01
5.350000e+02	3.754984e-01
5.351500e+02	3.780962e-01
5.353000e+02	3.727998e-01
5.354500e+02	3.555481e-01
5.356000e+02	3.586524e-01
5.357500e+02	3.471015e-01
5.359000e+02	3.420448e-01
5.360500e+02	3.662752e-01
5.362000e+02	3.771294e-01
5.363500e+02	3.992867e-01
5.365000e+02	3.945921e-01
5.366500e+02	3.612435e-01
5.368000e+02	3.730464e-01
5.369500e+02	4.264011e-01
5.371000e+02	4.818803e-01
5.372500e+02	4.647280e-01
5.374000e+02	4.606829e-01
5.375500e+02	5.150893e-01
5.377000e+02	5.354507e-01
5.378500e+02	5.722284e-01
5.380000e+02	6.017184e-01
5.381500e+02	6.021823e-01
5.383000e+02	6.078548e-01
5.384500e+02	6.767251e-01
5.386000e+02	7.121362e-01
5.387500e+02	7.052029e-01
5.389000e+02	7.226133e-01
5.390500e+02	7.495433e-01
5.392000e+02	8.098381e-01
5.393500e+02	8.341128e-01
5.395000e+02	8.817621e-01
5.396500e+02	9.218012e-01
5.398000e+02	9.590833e-01
5.399500e+02	1.017487e+00
5.401000e+02	1.057614e+00
5.402500e+02	1.109780e+00
5.404000e+02	1.159316e+00
5.405500e+02	1.181493e+00
5.407000e+02	1.256366e+00
5.408500e+02	1.261875e+00
5.410000e+02	1.253477e+00
5.411500e+02	1.288168e+00
5.413000e+02	1.316932e+00
5.414500e+02	1.310490e+00
5.416000e+02	1.319764e+00
5.417500e+02	1.332126e+00
5.419000e+02	1.359943e+00
5.420500e+02	1.351534e+00
5.422000e+02	1.245247e+00
5.423500e+02	1.223881e+00
5.425000e+02	1.234510e+00
5.426500e+02	1.272384e+00
5.428000e+02	1.270519e+00
5.429500e+02	1.234070e+00
5.431000e+02	1.166893e+00
5.432500e+02	1.177923e+00
5.434000e+02	1.213698e+00
5.435500e+02	1.192258e+00
5.437000e+02	1.148211e+00
5.438500e+02	1.178977e+00
5.440000e+02	1.199431e+00
5.441500e+02	1.149954e+00
5.443000e+02	1.153220e+00
5.444500e+02	1.153534e+00
5.446000e+02	1.174827e+00
5.447500e+02	1.164087e+00
5.449000e+02	1.161398e+00
5.450500e+02	1.170948e+00
5.452000e+02	1.143212e+00
5.453500e+02	1.157224e+00
5.455000e+02	1.157395e+00
5.456500e+02	1.149806e+00
5.458000e+02	1.167693e+00
5.459500e+02	1.160426e+00
5.461000e+02	1.127318e+00
5.462500e+02	1.141749e+00
5.464000e+02	1.134047e+00
5.465500e+02	1.098445e+00
5.467000e+02	1.047321e+00
5.468500e+02	1.091277e+00
5.470000e+02	1.096500e+00
5.471500e+02	1.103248e+00
5.473000e+02	1.112452e+00
5.474500e+02	1.053911e+00
5.476000e+02	1.036542e+00
5.477500e+02	1.064174e+00
5.479000e+02	1.028289e+00
5.480500e+02	9.945295e-01
5.482000e+02	9.886364e-01
5.483500e+02	1.010393e+00
5.485000e+02	1.008377e+00
5.486500e+02	9.759426e-01
5.488000e+02	9.681685e-01
5.489500e+02	9.351261e-01
5.491000e+02	9.704500e-01
5.492500e+02	9.804417e-01
5.494000e+02	9.560829e-01
5.495500e+02	9.590564e-01
5.497000e+02	9.502290e-01
5.498500e+02	9.651093e-01
